# XDI/1.0 GSE/1.0
# Column.1: energy eV
# Column.2: i0
# Column.3: itrans
# Column.4: mutrans
# Element.edge: K
# Element.symbol: Cu
# Scan.edge_energy: 8980.0
# Mono.name: Si 111
# Mono.d_spacing: 3.13553
# Beamline.name: 13ID
# Beamline.collimation: none
# Beamline.focusing: yes
# Beamline.harmonic_rejection: rhodium-coated mirror
# Facility.name: APS
# Facility.energy: 7.00 GeV
# Facility.xray_source: APS Undulator A
# Scan.start_time: 2001-06-26T22:27:31
# Detector.I0: 10cm  N2
# Detector.I1: 10cm  N2
# Sample.name: Cu
# Sample.prep: Cu metal foil
# GSE.EXTRA:  config 1
# ///
# Cu foil Room Temperature
# measured at beamline 13-ID
#----
# energy i0 itrans mutrans
  8779.0  149013.7  550643.089065  -1.3070486
  8789.0  144864.7  531876.119084  -1.3006104
  8799.0  132978.7  489591.10592  -1.3033816
  8809.0  125444.7  463051.104096  -1.3059724
  8819.0  121324.7  449969.103983  -1.3107085
  8829.0  119447.7  444386.117562  -1.3138152
  8839.0  119100.7  440176.091039  -1.3072055
  8849.0  117707.7  440448.106567  -1.3195882
  8859.0  117754.7  442302.10637  -1.3233895
  8869.0  117428.7  441944.116528  -1.3253521
  8879.0  117383.7  442810.120466  -1.327693
  8889.0  117185.7  443658.11566  -1.3312944
  8899.0  117058.7  444213.107169  -1.3336289
  8909.0  117276.7  443655.118274  -1.3305114
  8919.0  117332.7  447444.089027  -1.3385381
  8929.0  117332.7  448243.08656  -1.3403222
  8939.0  117756.7  450590.088482  -1.3419374
  8949.0  117199.7  445515.089564  -1.3353518
  8959.0  117458.7  448318.080875  -1.3394162
  8959.5  118720.7  452987.112399  -1.33909
  8960.0  119008.7  453897.09061  -1.3386739
  8960.5  120520.7  459458.086604  -1.3382262
  8961.0  121659.7  463407.085905  -1.3373781
  8961.5  121341.7  461871.092985  -1.3366753
  8962.0  121394.7  462122.090047  -1.3367819
  8962.5  121094.7  460800.080519  -1.3363914
  8963.0  120769.7  459282.103674  -1.3357792
  8963.5  121015.7  460053.086954  -1.3354216
  8964.0  120395.7  457426.089176  -1.3348315
  8964.5  120179.7  456370.108905  -1.334316
  8965.0  120917.7  458901.113976  -1.3337246
  8965.5  121353.7  460121.102908  -1.3327803
  8966.0  120788.7  457767.099353  -1.3323178
  8966.5  120845.7  457111.080183  -1.3304119
  8967.0  120809.7  456945.11275  -1.3303467
  8967.5  120816.7  456721.100387  -1.3297984
  8968.0  121040.7  456712.117546  -1.3279264
  8968.5  120821.7  455636.118464  -1.3273786
  8969.0  120986.7  455646.104782  -1.3260358
  8969.5  121289.7  456040.079324  -1.3243988
  8970.0  121113.7  454700.096839  -1.3229083
  8970.5  120800.7  452979.096663  -1.3217039
  8971.0  120024.7  449150.111057  -1.3196596
  8971.5  120379.7  449521.109059  -1.3175319
  8972.0  120769.7  449996.104574  -1.3153535
  8972.5  120602.7  448130.091064  -1.3125819
  8973.0  120328.7  445849.104818  -1.3097534
  8973.5  120405.7  444572.112191  -1.3062454
  8974.0  120519.7  443087.082423  -1.3019531
  8974.5  120702.7  442108.088971  -1.2982239
  8975.0  120678.7  439452.108017  -1.2923971
  8975.5  120861.7  437344.107549  -1.2860734
  8976.0  120656.7  433022.081423  -1.2778394
  8976.5  120856.7  429645.111677  -1.268354
  8977.0  120421.7  422855.092398  -1.2560298
  8977.5  120825.7  417044.116521  -1.238843
  8978.0  120630.7  407292.09755  -1.2167968
  8978.5  120845.7  393860.082322  -1.1814812
  8979.0  120832.7  373749.1103  -1.1291778
  8979.5  121033.7  341663.084759  -1.0377561
  8980.0  120305.7  285470.099526  -0.86410129
  8980.5  121037.7  224434.100994  -0.61748006
  8981.0  120519.7  169329.099398  -0.34003093
  8981.5  122539.7  144339.099533  -0.16373033
  8982.0  121788.7  130447.100044  -0.068680205
  8982.5  121415.7  125296.099961  -0.031459541
  8983.0  121266.7  125935.100051  -0.037774443
  8983.5  121720.7  130781.099967  -0.071795857
  8984.0  120930.7  134301.100019  -0.10486664
  8984.5  120764.7  136416.100084  -0.12186575
  8985.0  120680.7  134201.100471  -0.10619121
  8985.5  121074.7  128945.100013  -0.062979022
  8986.0  121052.7  120751.100006  0.0024945857
  8986.5  120823.7  114286.099966  0.055627505
  8987.0  120819.7  108683.100371  0.10586304
  8987.5  120508.7  103269.099677  0.15438375
  8988.0  120647.7  97879.100478  0.20914168
  8988.5  120841.7  92466.1003467  0.26763933
  8989.0  121405.7  86074.0997052  0.34392928
  8989.5  121141.7  78746.1001681  0.43073218
  8990.0  121046.7  70957.1001759  0.53410095
  8990.5  121244.7  63712.100005  0.64343632
  8991.0  120832.7  56482.1000247  0.76048317
  8991.5  120815.7  49455.0998374  0.89320106
  8992.0  121341.7  44121.1002893  1.0116724
  8992.5  121202.7  39260.1005751  1.1272556
  8993.0  120950.7  34973.1010491  1.2408038
  8993.5  121165.7  31819.0997413  1.3370923
  8994.0  120954.7  29573.1009162  1.4085509
  8994.5  121145.7  28221.1007995  1.456924
  8995.0  121337.7  27885.0992008  1.4704851
  8995.5  120813.7  28091.0997043  1.4587969
  8996.0  121141.7  29094.1008822  1.4264255
  8996.5  121052.7  30362.0990245  1.3830309
  8997.0  120941.7  31979.1014993  1.330226
  8997.5  121002.7  33461.0996421  1.2854293
  8998.0  121188.7  34974.1016582  1.242741
  8998.5  121138.7  36310.101112  1.2048402
  8999.0  120996.7  37194.1009651  1.1796131
  8999.5  120960.7  37723.0985117  1.1651931
  9000.0  121314.7  37878.0995107  1.1640149
  9000.5  121168.7  37286.0994935  1.1785632
  9001.0  121360.7  36173.0983472  1.2104514
  9001.5  120946.7  34370.0983609  1.258163
  9002.0  120951.7  32474.1014225  1.3149484
  9002.5  120887.7  30601.0987591  1.3738261
  9003.0  120998.7  28755.0988188  1.4369647
  9003.5  121373.7  27509.0988149  1.4843574
  9004.0  120709.7  26687.0996485  1.5092082
  9004.984  121041.7  27368.1003491  1.486757
  9005.988  120887.7  29580.0993354  1.4077602
  9007.012  120692.7  32480.0984292  1.3126201
  9008.053  120984.7  34952.1013495  1.2416855
  9009.114  120672.7  36846.1015968  1.1863321
  9010.193  120735.7  39018.1007018  1.1295782
  9011.293  120772.7  41039.099827  1.079385
  9012.41  120715.7  41985.1000325  1.0561234
  9013.548  120854.7  41895.1009468  1.0594201
  9014.703  120629.7  41188.1017689  1.0745761
  9015.878  121092.7  40374.0991  1.0983679
  9017.072  120875.7  38874.1010013  1.1344345
  9018.285  120788.7  36969.1003508  1.1839603
  9019.518  120999.7  34899.1008845  1.243327
  9020.769  120541.7  32760.1012997  1.3027844
  9022.038  120685.7  31044.0991092  1.3577809
  9023.327  120883.7  29564.1011517  1.4082681
  9024.636  120691.7  28068.0988785  1.4586057
  9025.963  120725.7  27100.1003287  1.4939836
  9027.309  120616.7  26972.0986672  1.4978148
  9028.674  120830.7  27971.098825  1.4632186
  9030.059  120639.7  29626.099643  1.4041527
  9031.461  120397.7  31588.0988095  1.33802
  9032.884  120036.7  33733.0992644  1.269318
  9034.325  121377.7  35921.100176  1.2175823
  9035.785  120948.7  36969.0985274  1.1852841
  9037.265  121082.7  37616.1012403  1.1690416
  9038.763  120756.7  37556.0985899  1.167942
  9040.28  121289.7  37212.1008075  1.1815479
  9041.816  120826.7  36312.0988564  1.2022063
  9043.372  120724.7  35797.098648  1.2156459
  9044.946  120299.7  35704.1000386  1.2147206
  9046.54  120652.7  36149.1006714  1.2052641
  9048.152  120559.7  36016.1001881  1.208179
  9049.783  120452.7  35302.0997351  1.2273147
  9051.434  120443.7  34485.0992117  1.2506551
  9053.104  120628.7  34146.0984743  1.2620689
  9054.792  120364.7  34082.0993435  1.261754
  9056.5  120251.7  33925.0997525  1.2654319
  9058.227  120521.7  33383.1011952  1.28378
  9059.972  120447.7  32363.1015837  1.3141967
  9061.736  120426.7  31464.098607  1.3421941
  9063.521  120317.7  30803.1003099  1.3625204
  9065.322  120372.7  30307.0986204  1.3792108
  9067.145  120543.7  29727.0986654  1.3999533
  9068.985  119794.7  28765.0999294  1.4266166
  9070.845  120186.7  27985.101158  1.4573741
  9072.724  120213.7  27425.1010929  1.4778123
  9074.621  120487.7  27545.100322  1.475723
  9076.538  120588.7  28291.1004009  1.4498383
  9078.474  120579.7  29645.0998423  1.4030141
  9080.429  120842.7  31326.099498  1.3500381
  9082.402  120501.7  32743.1002572  1.3029716
  9084.396  120409.7  34085.0984921  1.2620398
  9086.407  120267.7  35323.0982567  1.225183
  9088.438  120150.7  36140.1013024  1.2013437
  9090.488  120250.7  36597.1010203  1.1896097
  9092.557  120386.7  37604.0990468  1.163596
  9094.646  120571.7  39229.0991523  1.1228258
  9096.752  120531.7  40824.0998194  1.0826402
  9098.878  120450.7  41893.1002104  1.0561194
  9101.023  120209.7  41889.0986509  1.0542121
  9103.188  120404.7  41105.0986543  1.0747264
  9105.37  120119.7  39534.0982204  1.1113252
  9107.572  120080.7  37898.1014344  1.153263
  9109.794  120161.7  36531.0993837  1.1906744
  9112.034  119914.7  35391.0993129  1.2203203
  9114.293  120580.7  35045.101223  1.2356834
  9116.571  120440.7  34930.0997882  1.2378086
  9118.868  120496.7  35055.0985049  1.2347013
  9121.185  120120.7  34796.0985758  1.2389918
  9123.52  120422.7  34006.1011229  1.2644681
  9125.874  120278.7  32222.0999167  1.317159
  9128.247  119965.7  29872.101021  1.3902809
  9130.64  120456.7  28476.1003784  1.4422252
  9133.051  120415.7  27888.1013526  1.4627498
  9135.481  120588.7  28156.0987146  1.4546216
  9137.931  120311.7  28653.1010131  1.4348242
  9140.399  120317.7  29501.0998095  1.4057082
  9142.887  120547.7  30753.1007087  1.3660547
  9145.393  120249.7  32463.0985228  1.3094664
  9147.919  120056.7  34512.1015187  1.2466541
  9150.463  120366.7  37183.0984967  1.1746886
  9153.026  120206.7  39929.0991856  1.1021074
  9155.609  120165.7  42802.0981525  1.0322845
  9158.211  120626.7  45214.0998973  0.98129167
  9160.831  120451.7  46148.1001245  0.95939305
  9163.471  120273.7  45254.0997822  0.97747671
  9166.129  120243.7  43181.1007445  1.0241176
  9168.807  120444.7  40699.101923  1.0849847
  9171.504  118476.7  37884.1006733  1.1401848
  9174.22  120845.7  37318.098566  1.1750361
  9176.954  121414.7  36823.0997413  1.1930866
  9179.708  121351.7  36775.0983604  1.193872
  9182.48  121213.7  37082.1011181  1.1844207
  9185.272  120590.7  37293.101639  1.1735938
  9188.083  120312.7  37325.0986648  1.1704282
  9190.913  120539.7  37571.1008046  1.165744
  9193.762  119831.7  37718.0989823  1.1559482
  9196.63  120077.7  38292.100944  1.1428954
  9199.517  119941.7  38309.1009776  1.1413183
  9202.422  120308.7  37629.0982064  1.1622833
  9205.348  120172.7  36100.1014232  1.2026342
  9208.291  120270.7  34788.0986525  1.2404697
  9211.254  119981.7  34205.0991584  1.2549645
  9214.236  120286.7  34422.0986219  1.2511793
  9217.237  120315.7  34809.0991187  1.2402403
  9220.257  120255.7  35426.0990257  1.2221715
  9223.296  120627.7  36669.1001566  1.1907745
  9226.354  120288.7  38259.1017698  1.1455132
  9229.432  120376.7  39999.1015476  1.101769
  9232.527  120443.7  41725.0982326  1.0600796
  9235.643  119993.7  43011.1008382  1.025981
  9238.776  120132.7  43976.0982677  1.0049507
  9241.93  119879.7  44116.1002096  0.99966394
  9245.103  119841.7  43872.1009877  1.0048931
  9248.293  120142.7  43733.0978347  1.010575
  9251.504  120114.7  43643.1011089  1.0124019
  9254.732  120026.7  43544.1000164  1.01394
  9257.981  120260.7  43532.0995353  1.0161633
  9261.248  120240.7  43308.0992477  1.0211559
  9264.535  120126.7  42948.1003929  1.0285546
  9267.84  120427.7  42632.0992416  1.0384421
  9271.164  120157.7  42158.1004167  1.0473782
  9274.508  120399.7  41921.0983672  1.0550278
  9277.87  120169.7  41539.0982598  1.0622698
  9281.252  120187.7  41438.1016548  1.0648539
  9284.652  120351.7  41379.0986408  1.0676424
  9288.071  120011.7  41165.101154  1.0699984
  9291.51  120091.7  41074.0985656  1.0728779
  9294.968  120182.7  41105.0993242  1.0728809
  9298.444  120056.7  41011.0987458  1.0741214
  9301.939  120384.7  41416.0981059  1.0670228
  9305.454  119816.7  41831.0997047  1.052323
  9308.988  120268.7  42710.099147  1.035293
  9312.541  120022.7  43585.1018624  1.0129655
  9316.112  120292.7  44416.1001416  0.99632592
  9319.703  120180.7  45080.0998214  0.98055554
  9323.313  120233.7  45570.0999619  0.97018555
  9326.941  119937.7  45658.1001361  0.96579141
  9330.589  120382.7  45958.1001385  0.96294572
  9334.256  120584.7  46387.0998718  0.95533101
  9337.941  120442.7  46969.1001162  0.94168418
  9341.646  119941.7  47571.0998763  0.92478036
  9345.37  119272.7  47838.100235  0.91359007
  9349.113  120658.7  48430.0998852  0.91284438
  9352.875  119987.7  48096.1002301  0.91418814
  9356.655  120594.7  48296.1002095  0.91508452
  9360.456  120662.7  48315.099927  0.91525491
  9364.274  120544.7  48194.1000759  0.91678403
  9368.112  120200.7  47916.1000412  0.91971128
  9371.97  119833.7  47737.1002355  0.92039607
  9375.846  120177.7  47771.0998386  0.92255063
  9379.74  119774.7  47635.1001723  0.92204259
  9383.654  120445.7  47782.0998369  0.92454794
  9387.588  119193.7  47342.0998975  0.92334994
  9391.54  120422.7  47864.0999029  0.92264231
  9395.511  120139.7  47793.1002255  0.92177395
  9399.501  120456.7  48076.1000061  0.91850518
  9403.51  120156.7  48199.0997866  0.91345638
  9407.538  120125.7  48678.0998823  0.90330946
  9411.585  119994.7  49126.1001643  0.89305711
  9415.651  119267.7  49483.0999648  0.87973935
  9419.736  120771.7  50685.1002397  0.86827
  9423.841  120413.7  51009.0997754  0.85892927
  9427.964  120472.7  51266.0998062  0.85439346
  9432.106  120225.7  51359.10019  0.85052867
  9436.268  120331.7  51607.0998062  0.84659284
  9440.448  119882.7  51645.1001531  0.84211844
  9444.647  120383.7  52122.0999255  0.8370951
  9448.866  120247.7  52460.1000699  0.8295009
  9453.104  119875.7  52796.0999079  0.82001805
  9457.359  120335.7  53391.1000882  0.81264127
  9461.635  120309.7  53664.1001287  0.807325
  9465.93  120341.7  53918.0998781  0.80286897
  9470.243  119942.7  54020.0999575  0.79765793
  9474.575  120732.7  54655.0999805  0.79253648
  9478.927  120507.7  54672.0998274  0.79036013
  9483.298  120277.7  54686.1001148  0.78819367
  9487.688  120171.7  54670.1000758  0.78760461
  9492.096  120166.7  54699.0999748  0.78703269
  9496.523  120128.7  54699.1001178  0.78671641
  9500.97  119962.7  54657.0998518  0.78610174
  9505.436  120104.7  54722.1001425  0.78609621
  9509.92  120410.7  54955.1000642  0.78439191
  9514.424  120425.7  55198.100157  0.78010443
  9518.946  120422.7  55500.100042  0.77462323
  9523.488  119957.7  55765.1002763  0.76599095
  9528.049  120487.7  56537.1001811  0.75665061
  9532.629  120462.7  57028.1001499  0.74779603
  9537.228  120160.7  57259.1001029  0.74124343
  9541.846  120638.7  57860.100028  0.7347721
  9546.482  120416.7  58061.1001881  0.72946232
  9551.139  119757.7  58064.1001245  0.72392296
  9555.813  120460.7  58636.1000465  0.71997301
  9560.507  120691.7  59015.0998135  0.71544602
  9565.22  120363.7  59182.1000648  0.70989886
  9569.952  120488.7  59557.0997836  0.70462046
  9574.703  120599.7  59895.0998777  0.6998821
  9579.473  119666.7  59725.100049  0.69495801
  9584.262  120532.7  60547.1000522  0.68849951
  9589.07  120236.7  60725.099897  0.68310518
  9593.896  120406.7  61094.1000405  0.67845988
  9598.743  120575.7  61432.1000989  0.67434527
  9603.608  120395.7  61574.100023  0.67054249
  9608.492  120687.7  61928.100166  0.66723218
  9613.396  120295.7  61948.1000408  0.66365594
  9618.317  120555.7  62298.0999413  0.66018096
  9623.259  119906.7  62148.1002537  0.65719369
  9628.219  120302.7  62593.0998892  0.65335602
  9633.198  120123.7  62701.10024  0.65014305
  9638.196  119444.7  62603.099694  0.64603871
  9643.214  120218.7  63312.0999951  0.64123612
  9648.25  120287.7  63658.0998735  0.6363598
  9653.306  119908.7  63752.0996937  0.6317285
  9658.38  120259.7  64317.1002717  0.62582803
  9663.473  119964.7  64497.1000832  0.62057727
  9668.585  119574.7  64653.0997483  0.61490523
  9673.717  119823.7  65185.1000406  0.60879058
  9678.867  119220.7  65167.0997994  0.60402166
  9684.037  119461.7  65656.1002949  0.5985653
  9689.225  119505.7  66023.0998804  0.59335939
  9694.433  119743.7  66550.0998559  0.58739858
  9699.659  119955.7  67005.100138  0.58235377
  9704.904  120644.7  67727.0998066  0.57736347
  9710.169  120622.7  68014.0996937  0.57295246
  9715.453  120127.7  68052.099683  0.56828176
  9720.756  120837.7  68809.0999498  0.56311232
  9726.077  121280.7  69437.0997804  0.55768639
  9731.418  121236.7  69725.0996766  0.55318447
  9736.777  120469.7  69573.1000452  0.54902027
  9742.156  107370.7  62341.1002233  0.54366641
  9747.554  130108.7  75758.0996632  0.54082489
  9752.971  125993.7  73628.0999524  0.53720516
  9758.406  124664.7  73127.1000097  0.53342871
  9763.861  123473.7  72768.0996774  0.52875051
  9769.335  122665.7  72556.100239  0.52510271
  9774.827  120596.7  71578.0999625  0.52166276
  9780.339  120778.7  72038.0999803  0.5167648
  9785.87  120693.7  72313.0999259  0.51225063
  9791.42  119231.7  71764.0998465  0.50768431
  9796.988  119957.7  72445.0997834  0.50431015
  9802.577  120261.7  72960.0996477  0.49975749
  9808.184  120286.7  73312.0999725  0.49515239
  9813.81  120162.7  73579.0999843  0.49048564
  9819.454  119952.7  73787.0999138  0.48591358
  9825.118  119913.7  74108.0999498  0.48124748
  9830.802  119756.7  74360.099774  0.47654268
  9836.504  118610.7  73966.1001173  0.47223982
  9842.225  120129.7  75308.1002782  0.46698429
  9847.965  120021.7  75593.1000445  0.46230755
  9853.724  120016.7  75935.1001267  0.45775187
  9859.502  115480.7  73415.0999926  0.45297378
  9865.299  121396.7  77520.0998309  0.44852644
  9871.115  121155.7  77705.1002318  0.4441556
  9876.95  119624.7  77074.0996275  0.43959205
  9882.805  120776.7  78173.0998045  0.43501779
  9888.678  120845.7  78576.1002568  0.43044694
  9894.57  121344.7  79266.0999367  0.42582471
  9900.481  120620.7  79145.1003732  0.42136803
  9906.412  120260.7  79242.1002433  0.41715416
  9912.361  120866.7  79982.0996641  0.41288543
  9918.329  118931.7  79033.0997393  0.40868263
  9924.316  120895.7  80681.1002663  0.40442384
  9930.323  120630.7  80876.0998757  0.39981546
  9936.349  121041.7  81528.0998555  0.39518737
  9942.393  119849.7  81088.0999856  0.39070224
  9948.456  120201.7  81688.0998916  0.38626283
  9954.539  120683.7  82397.1001067  0.38162283
  9960.641  118731.7  81431.1001509  0.37710906
  9966.761  120659.7  83117.0999849  0.37272373
  9972.9  121011.7  83754.100034  0.36800211
  9979.059  120708.7  83887.0998205  0.36390836
  9985.236  119350.7  83317.0998044  0.35941241
  9991.434  120781.7  84682.0998946  0.35508054
  9997.648  119823.7  84391.1000023  0.35055955
  10003.88  120512.7  85249.1002255  0.34617758
  10010.14  119384.7  84846.1004145  0.34151202
  10016.41  119403.7  85230.1000787  0.33715553
  10022.7  120716.7  86580.1000942  0.33237648
  10029.01  118280.7  85229.099856  0.32771769
  10035.34  118950.7  86100.0998867  0.32319855
  10041.69  117702.7  85568.1003029  0.3188494
  10048.06  121382.7  88605.099674  0.31475895
  10054.45  120061.7  88019.1000817  0.31045194
  10060.85  119951.7  88304.1002304  0.30630262
  10067.28  120488.7  89110.0998902  0.30168329
  10073.72  118833.7  88265.1000656  0.29738025
  10080.18  118434.7  88372.1004302  0.29280544
  10086.66  117995.7  88449.0998063  0.28822094
  10093.17  118435.7  89180.0997098  0.28371228
  10099.69  117303.7  88720.0998253  0.27927983
  10106.22  117929.7  89581.1003571  0.27494432
  10112.78  116857.7  89144.1003332  0.27070279
  10119.36  115791.7  88718.1000129  0.26632896
  10125.96  111467.7  85797.099695  0.26174966
  10132.57  110079.7  85128.099834  0.25704747
  10139.21  104190.7  80953.0999403  0.2523529
  10145.86  93726.7  73074.0996945  0.24890911
